# E (eV)   ldos(E)   pdos(E)   
  -3.634  0.448E-04  0.448E-04
  -3.624  0.700E-04  0.700E-04
  -3.614  0.108E-03  0.108E-03
  -3.604  0.165E-03  0.165E-03
  -3.594  0.250E-03  0.250E-03
  -3.584  0.374E-03  0.374E-03
  -3.574  0.554E-03  0.554E-03
  -3.564  0.812E-03  0.812E-03
  -3.554  0.118E-02  0.118E-02
  -3.544  0.169E-02  0.169E-02
  -3.534  0.240E-02  0.240E-02
  -3.524  0.337E-02  0.337E-02
  -3.514  0.469E-02  0.469E-02
  -3.504  0.645E-02  0.645E-02
  -3.494  0.878E-02  0.878E-02
  -3.484  0.118E-01  0.118E-01
  -3.474  0.158E-01  0.158E-01
  -3.464  0.208E-01  0.208E-01
  -3.454  0.272E-01  0.272E-01
  -3.444  0.352E-01  0.352E-01
  -3.434  0.451E-01  0.451E-01
  -3.424  0.571E-01  0.571E-01
  -3.414  0.717E-01  0.717E-01
  -3.404  0.890E-01  0.890E-01
  -3.394  0.109E+00  0.109E+00
  -3.384  0.133E+00  0.133E+00
  -3.374  0.160E+00  0.160E+00
  -3.364  0.191E+00  0.191E+00
  -3.354  0.226E+00  0.226E+00
  -3.344  0.264E+00  0.264E+00
  -3.334  0.306E+00  0.306E+00
  -3.324  0.351E+00  0.351E+00
  -3.314  0.398E+00  0.398E+00
  -3.304  0.448E+00  0.448E+00
  -3.294  0.500E+00  0.500E+00
  -3.284  0.552E+00  0.552E+00
  -3.274  0.604E+00  0.604E+00
  -3.264  0.655E+00  0.655E+00
  -3.254  0.704E+00  0.704E+00
  -3.244  0.750E+00  0.750E+00
  -3.234  0.792E+00  0.792E+00
  -3.224  0.830E+00  0.830E+00
  -3.214  0.863E+00  0.863E+00
  -3.204  0.890E+00  0.890E+00
  -3.194  0.910E+00  0.910E+00
  -3.184  0.925E+00  0.925E+00
  -3.174  0.933E+00  0.933E+00
  -3.164  0.935E+00  0.935E+00
  -3.154  0.931E+00  0.931E+00
  -3.144  0.922E+00  0.922E+00
  -3.134  0.908E+00  0.908E+00
  -3.124  0.889E+00  0.889E+00
  -3.114  0.868E+00  0.868E+00
  -3.104  0.843E+00  0.843E+00
  -3.094  0.816E+00  0.816E+00
  -3.084  0.788E+00  0.788E+00
  -3.074  0.758E+00  0.758E+00
  -3.064  0.729E+00  0.729E+00
  -3.054  0.699E+00  0.699E+00
  -3.044  0.671E+00  0.671E+00
  -3.034  0.643E+00  0.643E+00
  -3.024  0.616E+00  0.616E+00
  -3.014  0.591E+00  0.591E+00
  -3.004  0.567E+00  0.567E+00
  -2.994  0.544E+00  0.544E+00
  -2.984  0.523E+00  0.523E+00
  -2.974  0.503E+00  0.503E+00
  -2.964  0.485E+00  0.485E+00
  -2.954  0.468E+00  0.468E+00
  -2.944  0.452E+00  0.452E+00
  -2.934  0.437E+00  0.437E+00
  -2.924  0.423E+00  0.423E+00
  -2.914  0.411E+00  0.411E+00
  -2.904  0.399E+00  0.399E+00
  -2.894  0.388E+00  0.388E+00
  -2.884  0.378E+00  0.378E+00
  -2.874  0.368E+00  0.368E+00
  -2.864  0.359E+00  0.359E+00
  -2.854  0.350E+00  0.350E+00
  -2.844  0.342E+00  0.342E+00
  -2.834  0.334E+00  0.334E+00
  -2.824  0.327E+00  0.327E+00
  -2.814  0.320E+00  0.320E+00
  -2.804  0.313E+00  0.313E+00
  -2.794  0.307E+00  0.307E+00
  -2.784  0.300E+00  0.300E+00
  -2.774  0.294E+00  0.294E+00
  -2.764  0.288E+00  0.288E+00
  -2.754  0.283E+00  0.283E+00
  -2.744  0.277E+00  0.277E+00
  -2.734  0.272E+00  0.272E+00
  -2.724  0.268E+00  0.268E+00
  -2.714  0.263E+00  0.263E+00
  -2.704  0.259E+00  0.259E+00
  -2.694  0.255E+00  0.255E+00
  -2.684  0.251E+00  0.251E+00
  -2.674  0.247E+00  0.247E+00
  -2.664  0.244E+00  0.244E+00
  -2.654  0.240E+00  0.240E+00
  -2.644  0.237E+00  0.237E+00
  -2.634  0.234E+00  0.234E+00
  -2.624  0.230E+00  0.230E+00
  -2.614  0.227E+00  0.227E+00
  -2.604  0.223E+00  0.223E+00
  -2.594  0.220E+00  0.220E+00
  -2.584  0.216E+00  0.216E+00
  -2.574  0.213E+00  0.213E+00
  -2.564  0.209E+00  0.209E+00
  -2.554  0.206E+00  0.206E+00
  -2.544  0.203E+00  0.203E+00
  -2.534  0.200E+00  0.200E+00
  -2.524  0.197E+00  0.197E+00
  -2.514  0.194E+00  0.194E+00
  -2.504  0.192E+00  0.192E+00
  -2.494  0.190E+00  0.190E+00
  -2.484  0.188E+00  0.188E+00
  -2.474  0.186E+00  0.186E+00
  -2.464  0.185E+00  0.185E+00
  -2.454  0.183E+00  0.183E+00
  -2.444  0.182E+00  0.182E+00
  -2.434  0.181E+00  0.181E+00
  -2.424  0.179E+00  0.179E+00
  -2.414  0.178E+00  0.178E+00
  -2.404  0.176E+00  0.176E+00
  -2.394  0.174E+00  0.174E+00
  -2.384  0.172E+00  0.172E+00
  -2.374  0.170E+00  0.170E+00
  -2.364  0.168E+00  0.168E+00
  -2.354  0.166E+00  0.166E+00
  -2.344  0.163E+00  0.163E+00
  -2.334  0.160E+00  0.160E+00
  -2.324  0.158E+00  0.158E+00
  -2.314  0.155E+00  0.155E+00
  -2.304  0.153E+00  0.153E+00
  -2.294  0.150E+00  0.150E+00
  -2.284  0.148E+00  0.148E+00
  -2.274  0.147E+00  0.147E+00
  -2.264  0.145E+00  0.145E+00
  -2.254  0.144E+00  0.144E+00
  -2.244  0.143E+00  0.143E+00
  -2.234  0.142E+00  0.142E+00
  -2.224  0.142E+00  0.142E+00
  -2.214  0.142E+00  0.142E+00
  -2.204  0.141E+00  0.141E+00
  -2.194  0.141E+00  0.141E+00
  -2.184  0.141E+00  0.141E+00
  -2.174  0.141E+00  0.141E+00
  -2.164  0.141E+00  0.141E+00
  -2.154  0.141E+00  0.141E+00
  -2.144  0.141E+00  0.141E+00
  -2.134  0.140E+00  0.140E+00
  -2.124  0.139E+00  0.139E+00
  -2.114  0.137E+00  0.137E+00
  -2.104  0.136E+00  0.136E+00
  -2.094  0.134E+00  0.134E+00
  -2.084  0.132E+00  0.132E+00
  -2.074  0.129E+00  0.129E+00
  -2.064  0.127E+00  0.127E+00
  -2.054  0.124E+00  0.124E+00
  -2.044  0.121E+00  0.121E+00
  -2.034  0.119E+00  0.119E+00
  -2.024  0.116E+00  0.116E+00
  -2.014  0.114E+00  0.114E+00
  -2.004  0.112E+00  0.112E+00
  -1.994  0.111E+00  0.111E+00
  -1.984  0.110E+00  0.110E+00
  -1.974  0.109E+00  0.109E+00
  -1.964  0.109E+00  0.109E+00
  -1.954  0.109E+00  0.109E+00
  -1.944  0.110E+00  0.110E+00
  -1.934  0.111E+00  0.111E+00
  -1.924  0.112E+00  0.112E+00
  -1.914  0.114E+00  0.114E+00
  -1.904  0.116E+00  0.116E+00
  -1.894  0.117E+00  0.117E+00
  -1.884  0.118E+00  0.118E+00
  -1.874  0.120E+00  0.120E+00
  -1.864  0.120E+00  0.120E+00
  -1.854  0.120E+00  0.120E+00
  -1.844  0.120E+00  0.120E+00
  -1.834  0.119E+00  0.119E+00
  -1.824  0.118E+00  0.118E+00
  -1.814  0.116E+00  0.116E+00
  -1.804  0.113E+00  0.113E+00
  -1.794  0.111E+00  0.111E+00
  -1.784  0.107E+00  0.107E+00
  -1.774  0.104E+00  0.104E+00
  -1.764  0.100E+00  0.100E+00
  -1.754  0.967E-01  0.967E-01
  -1.744  0.934E-01  0.934E-01
  -1.734  0.904E-01  0.904E-01
  -1.724  0.879E-01  0.879E-01
  -1.714  0.859E-01  0.859E-01
  -1.704  0.845E-01  0.845E-01
  -1.694  0.838E-01  0.838E-01
  -1.684  0.837E-01  0.837E-01
  -1.674  0.844E-01  0.844E-01
  -1.664  0.856E-01  0.856E-01
  -1.654  0.874E-01  0.874E-01
  -1.644  0.896E-01  0.896E-01
  -1.634  0.922E-01  0.922E-01
  -1.624  0.949E-01  0.949E-01
  -1.614  0.977E-01  0.977E-01
  -1.604  0.100E+00  0.100E+00
  -1.594  0.103E+00  0.103E+00
  -1.584  0.105E+00  0.105E+00
  -1.574  0.106E+00  0.106E+00
  -1.564  0.107E+00  0.107E+00
  -1.554  0.107E+00  0.107E+00
  -1.544  0.107E+00  0.107E+00
  -1.534  0.106E+00  0.106E+00
  -1.524  0.104E+00  0.104E+00
  -1.514  0.102E+00  0.102E+00
  -1.504  0.987E-01  0.987E-01
  -1.494  0.954E-01  0.954E-01
  -1.484  0.919E-01  0.919E-01
  -1.474  0.883E-01  0.883E-01
  -1.464  0.847E-01  0.847E-01
  -1.454  0.814E-01  0.814E-01
  -1.444  0.783E-01  0.783E-01
  -1.434  0.756E-01  0.756E-01
  -1.424  0.734E-01  0.734E-01
  -1.414  0.718E-01  0.718E-01
  -1.404  0.707E-01  0.707E-01
  -1.394  0.703E-01  0.703E-01
  -1.384  0.704E-01  0.704E-01
  -1.374  0.711E-01  0.711E-01
  -1.364  0.722E-01  0.722E-01
  -1.354  0.738E-01  0.738E-01
  -1.344  0.756E-01  0.756E-01
  -1.334  0.776E-01  0.776E-01
  -1.324  0.797E-01  0.797E-01
  -1.314  0.817E-01  0.817E-01
  -1.304  0.837E-01  0.837E-01
  -1.294  0.854E-01  0.854E-01
  -1.284  0.869E-01  0.869E-01
  -1.274  0.880E-01  0.880E-01
  -1.264  0.888E-01  0.888E-01
  -1.254  0.891E-01  0.891E-01
  -1.244  0.891E-01  0.891E-01
  -1.234  0.887E-01  0.887E-01
  -1.224  0.879E-01  0.879E-01
  -1.214  0.868E-01  0.868E-01
  -1.204  0.854E-01  0.854E-01
  -1.194  0.838E-01  0.838E-01
  -1.184  0.821E-01  0.821E-01
  -1.174  0.804E-01  0.804E-01
  -1.164  0.786E-01  0.786E-01
  -1.154  0.770E-01  0.770E-01
  -1.144  0.755E-01  0.755E-01
  -1.134  0.741E-01  0.741E-01
  -1.124  0.730E-01  0.730E-01
  -1.114  0.722E-01  0.722E-01
  -1.104  0.716E-01  0.716E-01
  -1.094  0.713E-01  0.713E-01
  -1.084  0.712E-01  0.712E-01
  -1.074  0.713E-01  0.713E-01
  -1.064  0.715E-01  0.715E-01
  -1.054  0.718E-01  0.718E-01
  -1.044  0.722E-01  0.722E-01
  -1.034  0.724E-01  0.724E-01
  -1.024  0.726E-01  0.726E-01
  -1.014  0.726E-01  0.726E-01
  -1.004  0.725E-01  0.725E-01
  -0.994  0.721E-01  0.721E-01
  -0.984  0.715E-01  0.715E-01
  -0.974  0.707E-01  0.707E-01
  -0.964  0.697E-01  0.697E-01
  -0.954  0.685E-01  0.685E-01
  -0.944  0.673E-01  0.673E-01
  -0.934  0.661E-01  0.661E-01
  -0.924  0.649E-01  0.649E-01
  -0.914  0.638E-01  0.638E-01
  -0.904  0.629E-01  0.629E-01
  -0.894  0.623E-01  0.623E-01
  -0.884  0.620E-01  0.620E-01
  -0.874  0.620E-01  0.620E-01
  -0.864  0.623E-01  0.623E-01
  -0.854  0.630E-01  0.630E-01
  -0.844  0.640E-01  0.640E-01
  -0.834  0.654E-01  0.654E-01
  -0.824  0.670E-01  0.670E-01
  -0.814  0.688E-01  0.688E-01
  -0.804  0.707E-01  0.707E-01
  -0.794  0.728E-01  0.728E-01
  -0.784  0.748E-01  0.748E-01
  -0.774  0.767E-01  0.767E-01
  -0.764  0.785E-01  0.785E-01
  -0.754  0.800E-01  0.800E-01
  -0.744  0.811E-01  0.811E-01
  -0.734  0.819E-01  0.819E-01
  -0.724  0.823E-01  0.823E-01
  -0.714  0.821E-01  0.821E-01
  -0.704  0.815E-01  0.815E-01
  -0.694  0.803E-01  0.803E-01
  -0.684  0.786E-01  0.786E-01
  -0.674  0.764E-01  0.764E-01
  -0.664  0.737E-01  0.737E-01
  -0.654  0.707E-01  0.707E-01
  -0.644  0.673E-01  0.673E-01
  -0.634  0.638E-01  0.638E-01
  -0.624  0.600E-01  0.600E-01
  -0.614  0.562E-01  0.562E-01
  -0.604  0.525E-01  0.525E-01
  -0.594  0.490E-01  0.490E-01
  -0.584  0.458E-01  0.458E-01
  -0.574  0.430E-01  0.430E-01
  -0.564  0.407E-01  0.407E-01
  -0.554  0.390E-01  0.390E-01
  -0.544  0.380E-01  0.380E-01
  -0.534  0.376E-01  0.376E-01
  -0.524  0.380E-01  0.380E-01
  -0.514  0.392E-01  0.392E-01
  -0.504  0.411E-01  0.411E-01
  -0.494  0.437E-01  0.437E-01
  -0.484  0.469E-01  0.469E-01
  -0.474  0.507E-01  0.507E-01
  -0.464  0.550E-01  0.550E-01
  -0.454  0.596E-01  0.596E-01
  -0.444  0.643E-01  0.643E-01
  -0.434  0.692E-01  0.692E-01
  -0.424  0.739E-01  0.739E-01
  -0.414  0.783E-01  0.783E-01
  -0.404  0.824E-01  0.824E-01
  -0.394  0.858E-01  0.858E-01
  -0.384  0.886E-01  0.886E-01
  -0.374  0.905E-01  0.905E-01
  -0.364  0.916E-01  0.916E-01
  -0.354  0.918E-01  0.918E-01
  -0.344  0.911E-01  0.911E-01
  -0.334  0.894E-01  0.894E-01
  -0.324  0.869E-01  0.869E-01
  -0.314  0.836E-01  0.836E-01
  -0.304  0.796E-01  0.796E-01
  -0.294  0.751E-01  0.751E-01
  -0.284  0.701E-01  0.701E-01
  -0.274  0.649E-01  0.649E-01
  -0.264  0.595E-01  0.595E-01
  -0.254  0.542E-01  0.542E-01
  -0.244  0.490E-01  0.490E-01
  -0.234  0.441E-01  0.441E-01
  -0.224  0.396E-01  0.396E-01
  -0.214  0.357E-01  0.357E-01
  -0.204  0.323E-01  0.323E-01
  -0.194  0.295E-01  0.295E-01
  -0.184  0.275E-01  0.275E-01
  -0.174  0.262E-01  0.262E-01
  -0.164  0.256E-01  0.256E-01
  -0.154  0.258E-01  0.258E-01
  -0.144  0.268E-01  0.268E-01
  -0.134  0.284E-01  0.284E-01
  -0.124  0.308E-01  0.308E-01
  -0.114  0.338E-01  0.338E-01
  -0.104  0.373E-01  0.373E-01
  -0.094  0.414E-01  0.414E-01
  -0.084  0.458E-01  0.458E-01
  -0.074  0.505E-01  0.505E-01
  -0.064  0.554E-01  0.554E-01
  -0.054  0.603E-01  0.603E-01
  -0.044  0.652E-01  0.652E-01
  -0.034  0.698E-01  0.698E-01
  -0.024  0.741E-01  0.741E-01
  -0.014  0.780E-01  0.780E-01
  -0.004  0.812E-01  0.812E-01
   0.006  0.838E-01  0.838E-01
   0.016  0.857E-01  0.857E-01
   0.026  0.868E-01  0.868E-01
   0.036  0.870E-01  0.870E-01
   0.046  0.864E-01  0.864E-01
   0.056  0.851E-01  0.851E-01
   0.066  0.829E-01  0.829E-01
   0.076  0.801E-01  0.801E-01
   0.086  0.766E-01  0.766E-01
   0.096  0.727E-01  0.727E-01
   0.106  0.683E-01  0.683E-01
   0.116  0.638E-01  0.638E-01
   0.126  0.591E-01  0.591E-01
   0.136  0.544E-01  0.544E-01
   0.146  0.498E-01  0.498E-01
   0.156  0.455E-01  0.455E-01
   0.166  0.415E-01  0.415E-01
   0.176  0.379E-01  0.379E-01
   0.186  0.349E-01  0.349E-01
   0.196  0.324E-01  0.324E-01
   0.206  0.306E-01  0.306E-01
   0.216  0.294E-01  0.294E-01
   0.226  0.288E-01  0.288E-01
   0.236  0.288E-01  0.288E-01
   0.246  0.295E-01  0.295E-01
   0.256  0.307E-01  0.307E-01
   0.266  0.324E-01  0.324E-01
   0.276  0.345E-01  0.345E-01
   0.286  0.370E-01  0.370E-01
   0.296  0.398E-01  0.398E-01
   0.306  0.428E-01  0.428E-01
   0.316  0.458E-01  0.458E-01
   0.326  0.489E-01  0.489E-01
   0.336  0.518E-01  0.518E-01
   0.346  0.546E-01  0.546E-01
   0.356  0.572E-01  0.572E-01
   0.366  0.594E-01  0.594E-01
   0.376  0.613E-01  0.613E-01
   0.386  0.629E-01  0.629E-01
   0.396  0.640E-01  0.640E-01
   0.406  0.648E-01  0.648E-01
   0.416  0.652E-01  0.652E-01
   0.426  0.652E-01  0.652E-01
   0.436  0.650E-01  0.650E-01
   0.446  0.645E-01  0.645E-01
   0.456  0.637E-01  0.637E-01
   0.466  0.628E-01  0.628E-01
   0.476  0.617E-01  0.617E-01
   0.486  0.605E-01  0.605E-01
   0.496  0.592E-01  0.592E-01
   0.506  0.579E-01  0.579E-01
   0.516  0.565E-01  0.565E-01
   0.526  0.551E-01  0.551E-01
   0.536  0.538E-01  0.538E-01
   0.546  0.524E-01  0.524E-01
   0.556  0.511E-01  0.511E-01
   0.566  0.499E-01  0.499E-01
   0.576  0.487E-01  0.487E-01
   0.586  0.476E-01  0.476E-01
   0.596  0.467E-01  0.467E-01
   0.606  0.459E-01  0.459E-01
   0.616  0.454E-01  0.454E-01
   0.626  0.450E-01  0.450E-01
   0.636  0.448E-01  0.448E-01
   0.646  0.450E-01  0.450E-01
   0.656  0.453E-01  0.453E-01
   0.666  0.459E-01  0.459E-01
   0.676  0.467E-01  0.467E-01
   0.686  0.477E-01  0.477E-01
   0.696  0.489E-01  0.489E-01
   0.706  0.501E-01  0.501E-01
   0.716  0.513E-01  0.513E-01
   0.726  0.525E-01  0.525E-01
   0.736  0.536E-01  0.536E-01
   0.746  0.545E-01  0.545E-01
   0.756  0.552E-01  0.552E-01
   0.766  0.555E-01  0.555E-01
   0.776  0.556E-01  0.556E-01
   0.786  0.552E-01  0.552E-01
   0.796  0.545E-01  0.545E-01
   0.806  0.535E-01  0.535E-01
   0.816  0.521E-01  0.521E-01
   0.826  0.504E-01  0.504E-01
   0.836  0.484E-01  0.484E-01
   0.846  0.464E-01  0.464E-01
   0.856  0.442E-01  0.442E-01
   0.866  0.420E-01  0.420E-01
   0.876  0.398E-01  0.398E-01
   0.886  0.379E-01  0.379E-01
   0.896  0.361E-01  0.361E-01
   0.906  0.347E-01  0.347E-01
   0.916  0.336E-01  0.336E-01
   0.926  0.330E-01  0.330E-01
   0.936  0.327E-01  0.327E-01
   0.946  0.330E-01  0.330E-01
   0.956  0.337E-01  0.337E-01
   0.966  0.348E-01  0.348E-01
   0.976  0.364E-01  0.364E-01
   0.986  0.383E-01  0.383E-01
   0.996  0.405E-01  0.405E-01
   1.006  0.431E-01  0.431E-01
   1.016  0.458E-01  0.458E-01
   1.026  0.486E-01  0.486E-01
   1.036  0.515E-01  0.515E-01
   1.046  0.543E-01  0.543E-01
   1.056  0.571E-01  0.571E-01
   1.066  0.597E-01  0.597E-01
   1.076  0.621E-01  0.621E-01
   1.086  0.642E-01  0.642E-01
   1.096  0.660E-01  0.660E-01
   1.106  0.675E-01  0.675E-01
   1.116  0.686E-01  0.686E-01
   1.126  0.693E-01  0.693E-01
   1.136  0.697E-01  0.697E-01
   1.146  0.696E-01  0.696E-01
   1.156  0.692E-01  0.692E-01
   1.166  0.684E-01  0.684E-01
   1.176  0.673E-01  0.673E-01
   1.186  0.658E-01  0.658E-01
   1.196  0.640E-01  0.640E-01
   1.206  0.618E-01  0.618E-01
   1.216  0.595E-01  0.595E-01
   1.226  0.569E-01  0.569E-01
   1.236  0.541E-01  0.541E-01
   1.246  0.511E-01  0.511E-01
   1.256  0.480E-01  0.480E-01
   1.266  0.448E-01  0.448E-01
   1.276  0.416E-01  0.416E-01
   1.286  0.384E-01  0.384E-01
   1.296  0.352E-01  0.352E-01
   1.306  0.322E-01  0.322E-01
   1.316  0.293E-01  0.293E-01
   1.326  0.266E-01  0.266E-01
   1.336  0.242E-01  0.242E-01
   1.346  0.221E-01  0.221E-01
   1.356  0.203E-01  0.203E-01
   1.366  0.189E-01  0.189E-01
   1.376  0.179E-01  0.179E-01
   1.386  0.173E-01  0.173E-01
   1.396  0.172E-01  0.172E-01
   1.406  0.176E-01  0.176E-01
   1.416  0.186E-01  0.186E-01
   1.426  0.200E-01  0.200E-01
   1.436  0.219E-01  0.219E-01
   1.446  0.242E-01  0.242E-01
   1.456  0.271E-01  0.271E-01
   1.466  0.303E-01  0.303E-01
   1.476  0.340E-01  0.340E-01
   1.486  0.379E-01  0.379E-01
   1.496  0.421E-01  0.421E-01
   1.506  0.465E-01  0.465E-01
   1.516  0.510E-01  0.510E-01
   1.526  0.554E-01  0.554E-01
   1.536  0.598E-01  0.598E-01
   1.546  0.639E-01  0.639E-01
   1.556  0.678E-01  0.678E-01
   1.566  0.713E-01  0.713E-01
   1.576  0.743E-01  0.743E-01
   1.586  0.768E-01  0.768E-01
   1.596  0.787E-01  0.787E-01
   1.606  0.800E-01  0.800E-01
   1.616  0.806E-01  0.806E-01
   1.626  0.805E-01  0.805E-01
   1.636  0.798E-01  0.798E-01
   1.646  0.784E-01  0.784E-01
   1.656  0.764E-01  0.764E-01
   1.666  0.738E-01  0.738E-01
   1.676  0.708E-01  0.708E-01
   1.686  0.673E-01  0.673E-01
   1.696  0.636E-01  0.636E-01
   1.706  0.595E-01  0.595E-01
   1.716  0.553E-01  0.553E-01
   1.726  0.510E-01  0.510E-01
   1.736  0.468E-01  0.468E-01
   1.746  0.426E-01  0.426E-01
   1.756  0.385E-01  0.385E-01
   1.766  0.347E-01  0.347E-01
   1.776  0.311E-01  0.311E-01
   1.786  0.279E-01  0.279E-01
   1.796  0.250E-01  0.250E-01
   1.806  0.225E-01  0.225E-01
   1.816  0.205E-01  0.205E-01
   1.826  0.188E-01  0.188E-01
   1.836  0.176E-01  0.176E-01
   1.846  0.168E-01  0.168E-01
   1.856  0.164E-01  0.164E-01
   1.866  0.165E-01  0.165E-01
   1.876  0.169E-01  0.169E-01
   1.886  0.176E-01  0.176E-01
   1.896  0.187E-01  0.187E-01
   1.906  0.200E-01  0.200E-01
   1.916  0.216E-01  0.216E-01
   1.926  0.234E-01  0.234E-01
   1.936  0.253E-01  0.253E-01
   1.946  0.274E-01  0.274E-01
   1.956  0.296E-01  0.296E-01
   1.966  0.319E-01  0.319E-01
   1.976  0.342E-01  0.342E-01
   1.986  0.366E-01  0.366E-01
   1.996  0.390E-01  0.390E-01
   2.006  0.414E-01  0.414E-01
   2.016  0.438E-01  0.438E-01
   2.026  0.462E-01  0.462E-01
   2.036  0.487E-01  0.487E-01
   2.046  0.511E-01  0.511E-01
   2.056  0.536E-01  0.536E-01
   2.066  0.560E-01  0.560E-01
   2.076  0.583E-01  0.583E-01
   2.086  0.606E-01  0.606E-01
   2.096  0.628E-01  0.628E-01
   2.106  0.647E-01  0.647E-01
   2.116  0.664E-01  0.664E-01
   2.126  0.678E-01  0.678E-01
   2.136  0.689E-01  0.689E-01
   2.146  0.696E-01  0.696E-01
   2.156  0.698E-01  0.698E-01
   2.166  0.695E-01  0.695E-01
   2.176  0.687E-01  0.687E-01
   2.186  0.675E-01  0.675E-01
   2.196  0.657E-01  0.657E-01
   2.206  0.635E-01  0.635E-01
   2.216  0.609E-01  0.609E-01
   2.226  0.580E-01  0.580E-01
   2.236  0.549E-01  0.549E-01
   2.246  0.515E-01  0.515E-01
   2.256  0.481E-01  0.481E-01
   2.266  0.448E-01  0.448E-01
   2.276  0.416E-01  0.416E-01
   2.286  0.385E-01  0.385E-01
   2.296  0.358E-01  0.358E-01
   2.306  0.333E-01  0.333E-01
   2.316  0.313E-01  0.313E-01
   2.326  0.296E-01  0.296E-01
   2.336  0.283E-01  0.283E-01
   2.346  0.274E-01  0.274E-01
   2.356  0.269E-01  0.269E-01
   2.366  0.268E-01  0.268E-01
   2.376  0.269E-01  0.269E-01
   2.386  0.272E-01  0.272E-01
   2.396  0.277E-01  0.277E-01
   2.406  0.284E-01  0.284E-01
   2.416  0.291E-01  0.291E-01
   2.426  0.299E-01  0.299E-01
   2.436  0.306E-01  0.306E-01
   2.446  0.312E-01  0.312E-01
   2.456  0.318E-01  0.318E-01
   2.466  0.323E-01  0.323E-01
   2.476  0.327E-01  0.327E-01
   2.486  0.331E-01  0.331E-01
   2.496  0.333E-01  0.333E-01
   2.506  0.335E-01  0.335E-01
   2.516  0.337E-01  0.337E-01
   2.526  0.339E-01  0.339E-01
   2.536  0.342E-01  0.342E-01
   2.546  0.345E-01  0.345E-01
   2.556  0.349E-01  0.349E-01
   2.566  0.353E-01  0.353E-01
   2.576  0.359E-01  0.359E-01
   2.586  0.366E-01  0.366E-01
   2.596  0.374E-01  0.374E-01
   2.606  0.382E-01  0.382E-01
   2.616  0.392E-01  0.392E-01
   2.626  0.402E-01  0.402E-01
   2.636  0.413E-01  0.413E-01
   2.646  0.424E-01  0.424E-01
   2.656  0.436E-01  0.436E-01
   2.666  0.447E-01  0.447E-01
   2.676  0.458E-01  0.458E-01
   2.686  0.469E-01  0.469E-01
   2.696  0.480E-01  0.480E-01
   2.706  0.490E-01  0.490E-01
   2.716  0.499E-01  0.499E-01
   2.726  0.508E-01  0.508E-01
   2.736  0.515E-01  0.515E-01
   2.746  0.522E-01  0.522E-01
   2.756  0.528E-01  0.528E-01
   2.766  0.532E-01  0.532E-01
   2.776  0.535E-01  0.535E-01
   2.786  0.537E-01  0.537E-01
   2.796  0.537E-01  0.537E-01
